Data from N_1_HIR_WI_4N_Splice17_11-39-29-931.txt Node
Date: Sat Mar 14 11:39:29 EDT 2020
User: sa697716
Spectrometer: FLMS03696
Trigger mode: 0
Integration Time (sec): 3.180400E-1
Scans to average: 20
Electric dark correction enabled: true
Nonlinearity correction enabled: true
Boxcar width: 5
XAxis mode: Wavelengths
Number of Pixels in Spectrum: 2048
>>>>>Begin Spectral Data<<<<<
187.83	-159746.47
188.298	1289.41
188.766	736.42
189.233	714.87
189.701	969.35
190.169	1230.63
190.636	423.23
191.104	366.94
191.571	70.78
192.039	-4.36
192.506	-0.06
192.974	334.62
193.441	-657.46
193.908	-66.16
194.375	65.23
194.842	127.6
195.31	152.33
195.777	135.05
196.244	221.56
196.711	118.76
197.177	89.99
197.644	37.89
198.111	48.68
198.578	54.93
199.045	6.71
199.511	-61.77
199.978	-161.99
200.445	-97.14
200.911	-146.44
201.378	-239.04
201.844	-176.94
202.31	-336.22
202.777	-331.55
203.243	-200.73
203.709	-179.57
204.176	-210.88
204.642	-144.75
205.108	-143.59
205.574	-146.78
206.04	-161.82
206.506	-157.99
206.972	-173.86
207.438	-160.24
207.903	-183.21
208.369	-121.02
208.835	-108.61
209.301	-110.09
209.766	-135.69
210.232	-121.13
210.697	-162.15
211.163	-195.02
211.628	-271.04
212.094	-212.5
212.559	-157.78
213.024	-72.52
213.49	-78.04
213.955	-99.11
214.42	-140.71
214.885	-103.03
215.35	-95.72
215.815	10.69
216.28	27.53
216.745	16.56
217.21	45.99
217.675	-4.15
218.14	-14.22
218.604	-44.37
219.069	-36.9
219.534	5.96
219.998	-16.98
220.463	-11.61
220.927	-103.52
221.392	-109.65
221.856	-89.78
222.32	-146.41
222.785	-157.66
223.249	-185.01
223.713	-197.96
224.177	-190.75
224.642	-296.93
225.106	-383.29
225.57	-443.42
226.034	-275.64
226.497	-387.32
226.961	-294.75
227.425	-297.47
227.889	-345.69
228.353	-385.38
228.816	-755.68
229.28	-707.83
229.744	-581.72
230.207	-252.25
230.671	-188.46
231.134	-418.7
231.597	-437.03
232.061	-488.97
232.524	-574.99
232.987	-385.01
233.45	-278.24
233.914	-239.43
234.377	-264.9
234.84	-232.59
235.303	-343.8
235.766	-427.44
236.229	-440.89
236.691	-287.82
237.154	-346.58
237.617	-227.77
238.08	-238.93
238.542	-286.07
239.005	-215.26
239.468	-203.31
239.93	-193.87
240.393	-146.17
240.855	-119.34
241.317	-133.22
241.78	-186.79
242.242	-176.22
242.704	-154.53
243.166	-119.83
243.629	-78.05
244.091	-85.37
244.553	-82.12
245.015	-67.27
245.477	-121.86
245.939	-209.39
246.4	-192.09
246.862	-176.1
247.324	-165.75
247.786	-242.51
248.247	-364.7
248.709	-529.69
249.17	-374.72
249.632	-254.12
250.093	-252.63
250.555	-196.96
251.016	-72.12
251.477	-65.83
251.939	-53.32
252.4	-67
252.861	-98.93
253.322	-70.09
253.783	-111.43
254.244	-164.77
254.705	-206.52
255.166	-230.47
255.627	-213.98
256.088	-299.88
256.549	-327.58
257.009	-274.21
257.47	-366.83
257.931	-315.41
258.391	-215.79
258.852	-197.97
259.312	-199.5
259.773	-259.41
260.233	-144.89
260.694	-113.68
261.154	-156.44
261.614	-70.11
262.074	-62.27
262.534	-26.76
262.994	-5.87
263.455	-22.23
263.915	14.48
264.374	-0.3
264.834	6.15
265.294	-36.21
265.754	-30.43
266.214	-32.79
266.673	-40.04
267.133	-82.17
267.593	-104.61
268.052	-121.33
268.512	-121.64
268.971	-125.07
269.431	-115.46
269.89	-108.7
270.349	-161.98
270.809	-170.63
271.268	-107.15
271.727	-419.09
272.186	-214.47
272.645	-159.84
273.104	-148.42
273.563	-217.51
274.022	-246.94
274.481	-191.69
274.94	-143.04
275.399	-108.68
275.857	-162.07
276.316	-264.01
276.775	-230.64
277.233	-220.21
277.692	-165.26
278.15	-187.67
278.609	-160.93
279.067	-151.65
279.525	-122.32
279.984	-191.25
280.442	-252.64
280.9	-182.11
281.358	-109.69
281.816	-82.61
282.274	-94.07
282.732	-156.25
283.19	-137.48
283.648	-136.82
284.106	-159.13
284.564	-176.76
285.021	-136.91
285.479	-111.24
285.937	-136.51
286.394	-101.35
286.852	-123.25
287.309	-135.35
287.767	-90.4
288.224	-78.63
288.682	-94.7
289.139	-88.93
289.596	-79.4
290.053	-89.73
290.511	-107.05
290.968	-108.75
291.425	-191.06
291.882	-97.95
292.339	-63.52
292.796	-101.24
293.252	-122
293.709	-51.34
294.166	-37.04
294.623	-50.94
295.079	-64.17
295.536	-44.65
295.992	-30.63
296.449	-16.51
296.905	-25.66
297.362	-7.93
297.818	-23.11
298.274	3.1
298.731	-28.33
299.187	-37.29
299.643	-30.03
300.099	-22.25
300.555	-26.03
301.011	-21.23
301.467	28.27
301.923	-0.82
302.379	-9.64
302.835	9.49
303.291	-9.15
303.746	-15.02
304.202	-53.36
304.658	-80.33
305.113	-45.65
305.569	-40.04
306.024	-67.9
306.479	-128.89
306.935	-79.83
307.39	-116.4
307.845	-110.37
308.301	-93.59
308.756	-104.91
309.211	-77.96
309.666	-88.82
310.121	-92.82
310.576	-140.54
311.031	-155.91
311.486	-228.39
311.94	-256.24
312.395	-371.44
312.85	-858.86
313.305	-5237.33
313.759	-22536.57
314.214	-1711.2
314.668	-1239.61
315.123	-918.55
315.577	-261.4
316.032	-215.9
316.486	-274.86
316.94	-196.44
317.394	-106.2
317.849	-53.94
318.303	-45.23
318.757	-40.28
319.211	-29.47
319.665	-26.02
320.119	-47.29
320.572	-97.06
321.026	-53.14
321.48	-23.65
321.934	-46.21
322.387	-57.55
322.841	-41.87
323.295	1.55
323.748	-55
324.202	-79.05
324.655	-85.01
325.108	-41.41
325.562	4.07
326.015	-45.14
326.468	-47.08
326.921	-47.07
327.374	9.05
327.827	22.31
328.28	8.39
328.733	37.55
329.186	53.87
329.639	49.2
330.092	15.69
330.545	13.79
330.997	30.99
331.45	57.59
331.903	78.37
332.355	30.96
332.808	-13.42
333.26	-21.26
333.713	-22.29
334.165	-39.46
334.617	-83.89
335.069	-114.54
335.522	-322.98
335.974	-391.75
336.426	-388.95
336.878	-332.58
337.33	-137.66
337.782	-137.56
338.234	-139.52
338.686	-215.65
339.137	-270.91
339.589	-278.22
340.041	-175.26
340.493	-131.03
340.944	-141.17
341.396	-154.34
341.847	-118.44
342.299	-84.36
342.75	-54.96
343.201	-93.4
343.653	-82.25
344.104	-141.68
344.555	-107.48
345.006	-293.78
345.457	-144.31
345.908	-119.16
346.359	-92.09
346.81	-54.35
347.261	-121.39
347.712	-150.14
348.163	-180.41
348.613	-138.89
349.064	-107.11
349.515	-76.92
349.965	-50.17
350.416	-99.51
350.866	-142.29
351.317	-204.84
351.767	-312.16
352.217	-365.43
352.668	-292.92
353.118	-239.81
353.568	-311.97
354.018	-211.84
354.468	-205.43
354.918	-124.41
355.368	-118
355.818	-157.65
356.268	-571.22
356.718	-2241.72
357.168	-486.54
357.617	-274.82
358.067	-364.06
358.517	-363.78
358.966	-432.78
359.416	-511.51
359.865	-700.1
360.315	-806.65
360.764	-330.33
361.213	-142.53
361.663	-173.35
362.112	-267.52
362.561	-419.55
363.01	-313.13
363.459	-238.62
363.908	-273.51
364.357	-174.38
364.806	-271.59
365.255	-240.32
365.703	-183.67
366.152	-155.03
366.601	-97.24
367.05	-27.93
367.498	-4.43
367.947	-12.45
368.395	-32.63
368.844	-18.46
369.292	-91.04
369.74	-46.28
370.189	-57.9
370.637	-98.75
371.085	-121.25
371.533	-171.81
371.981	-203.69
372.429	-188.83
372.877	-152.37
373.325	-115.82
373.773	-155.55
374.221	-143.23
374.669	-181.5
375.116	-154.64
375.564	-149.14
376.012	-166.48
376.459	-131.43
376.907	-176.16
377.354	-244.38
377.801	-218.35
378.249	-205.5
378.696	-253.8
379.143	-261.77
379.591	-302.01
380.038	-563.11
380.485	-386.8
380.932	-458.5
381.379	-327.38
381.826	-147.85
382.273	-119.37
382.72	-124.6
383.166	-127.61
383.613	-56.02
384.06	-42.38
384.506	-43.35
384.953	-21.81
385.4	-37.19
385.846	-27
386.292	-45.54
386.739	-63.79
387.185	-65.91
387.631	-65.36
388.078	-40.09
388.524	-57.32
388.97	-58.54
389.416	-46.05
389.862	-43.68
390.308	-34.04
390.754	-29.09
391.2	-30.43
391.645	-32.69
392.091	-0.69
392.537	10.37
392.983	-13.41
393.428	20.84
393.874	13.71
394.319	32.16
394.765	46.79
395.21	36.58
395.655	34.95
396.101	29.26
396.546	33.69
396.991	14.75
397.436	6.03
397.881	3.55
398.326	-13.76
398.771	-5.39
399.216	-15.42
399.661	-21.89
400.106	-16.13
400.551	-14.44
400.995	-8.3
401.44	-10.49
401.885	-7.87
402.329	-10.83
402.774	-7.65
403.218	5.94
403.663	5.05
404.107	10.66
404.551	16.62
404.995	12.23
405.44	9.12
405.884	4.34
406.328	-0.83
406.772	-2.59
407.216	0.43
407.66	-2.84
408.104	-14.11
408.547	-13.42
408.991	-17.06
409.435	-19.44
409.879	-13.94
410.322	-15.59
410.766	-13
411.209	-5.48
411.653	-6.17
412.096	-4.5
412.54	-5.14
412.983	-3.58
413.426	0.65
413.869	-0.29
414.312	3.05
414.756	-0.9
415.199	1.28
415.642	4.08
416.085	3.86
416.527	3.3
416.97	0.75
417.413	2.5
417.856	0.05
418.298	-2.11
418.741	-2.81
419.184	-6.36
419.626	-11.75
420.069	-10.31
420.511	-11.69
420.953	-13.55
421.396	-10.81
421.838	-8.9
422.28	-11.04
422.722	-8.89
423.164	-12.82
423.606	-14.03
424.048	-15.52
424.49	-7.8
424.932	-10.95
425.374	-11.57
425.816	-11.62
426.258	-14.22
426.699	-14.36
427.141	-8.44
427.582	-10.5
428.024	-8.59
428.465	-8.45
428.907	-8.03
429.348	-10.3
429.789	-6.15
430.231	-2.45
430.672	-1.35
431.113	-0.36
431.554	-1.45
431.995	-5.78
432.436	-1.05
432.877	1.05
433.318	3.98
433.759	3.24
434.2	3.13
434.64	-0.67
435.081	-3.29
435.522	-2.8
435.962	-3.13
436.403	0.02
436.843	-0.8
437.284	-3.65
437.724	-7.52
438.164	-10.83
438.604	-9.76
439.045	-6.74
439.485	-2.61
439.925	-3.73
440.365	-5.26
440.805	-5.74
441.245	-5.91
441.685	-5.66
442.125	-6.76
442.564	-6.3
443.004	-3.27
443.444	-3.84
443.883	-4.93
444.323	-9.19
444.762	-11.04
445.202	-11.12
445.641	-8.94
446.081	-12.5
446.52	-11.48
446.959	-8.93
447.398	-7.33
447.837	-8.25
448.276	-7.16
448.716	-6.82
449.154	-7.43
449.593	-4.55
450.032	-4.07
450.471	-5.51
450.91	-5.22
451.349	-3.61
451.787	-4.61
452.226	-5.79
452.664	-6.87
453.103	-8.52
453.541	-10.19
453.98	-6.51
454.418	-7.14
454.856	-5.62
455.295	-6.17
455.733	-5.08
456.171	-6.1
456.609	-5.69
457.047	-4.73
457.485	-2
457.923	-0.37
458.361	-0.27
458.798	-1.62
459.236	-2.8
459.674	-3.69
460.111	-2.85
460.549	-2.6
460.987	-4.57
461.424	-5.46
461.862	-5.32
462.299	-6.22
462.736	-5.52
463.173	-5.25
463.611	-0.95
464.048	1.58
464.485	2.39
464.922	2.72
465.359	2.65
465.796	11.79
466.233	13.84
466.67	16.94
467.106	18.72
467.543	18
467.98	17.33
468.416	13.14
468.853	10.61
469.29	8.6
469.726	7.37
470.162	7.42
470.599	0.55
471.035	-2.03
471.471	-4.88
471.907	-7.81
472.344	-7.09
472.78	-6.09
473.216	-6.75
473.652	-5.55
474.088	-5.56
474.523	-5.02
474.959	-6.08
475.395	-5.89
475.831	-5.13
476.266	-4.46
476.702	-4
477.138	-4.41
477.573	-4.4
478.008	-3.67
478.444	-2.88
478.879	-1.05
479.314	-0.83
479.75	-0.05
480.185	-0.2
480.62	-0.08
481.055	-0.43
481.49	0.07
481.925	0.33
482.36	2.83
482.795	2.62
483.229	1.38
483.664	0.13
484.099	0.97
484.534	1.36
484.968	2.34
485.403	2.16
485.837	1.52
486.271	1.31
486.706	1.34
487.14	-1.14
487.574	-1.21
488.009	-0.78
488.443	-0.99
488.877	-1.1
489.311	-1.54
489.745	-1.79
490.179	-1.65
490.613	0.9
491.046	0.48
491.48	-0.48
491.914	-0.13
492.348	0.25
492.781	0.76
493.215	1.38
493.648	0.24
494.082	0.28
494.515	0.79
494.948	1.79
495.382	-0.4
495.815	0.05
496.248	0.95
496.681	0.59
497.114	0.06
497.547	-0.05
497.98	0.7
498.413	2.51
498.846	2.84
499.279	1.56
499.711	0.63
500.144	0.28
500.577	0.91
501.009	0.37
501.442	1.49
501.874	2.18
502.306	1.83
502.739	3.88
503.171	3.02
503.603	2.69
504.036	2.79
504.468	3.25
504.9	3.72
505.332	2.83
505.764	3.75
506.196	3.01
506.627	3.06
507.059	3.09
507.491	-0.33
507.923	0.25
508.354	0.93
508.786	0.97
509.217	0.66
509.649	0.84
510.08	0.81
510.512	1.12
510.943	1.36
511.374	1.25
511.805	0.99
512.237	1.1
512.668	-0.01
513.099	-1.49
513.53	-1.68
513.961	-1.17
514.391	-1.33
514.822	0.25
515.253	0.15
515.684	0.32
516.114	0.31
516.545	1.12
516.975	1.47
517.406	1.16
517.836	1.53
518.267	2.11
518.697	2.95
519.127	3.04
519.558	2.17
519.988	1.37
520.418	0.36
520.848	-0.4
521.278	-1.48
521.708	29.86
522.138	31.2
522.567	30.6
522.997	30.35
523.427	29.41
523.857	29.55
524.286	29.38
524.716	29.79
525.145	30.64
525.575	31.28
526.004	30.85
526.433	0.48
526.863	-0.51
527.292	1.1
527.721	2.01
528.15	1.94
528.579	2.1
529.008	2.15
529.437	0.95
529.866	0.25
530.295	-0.46
530.724	1.04
531.152	0.66
531.581	1.36
532.01	0.63
532.438	-0.57
532.867	-1.15
533.295	-0.74
533.723	-0.99
534.152	-0.37
534.58	0.24
535.008	0.38
535.436	0.85
535.865	0.58
536.293	-0.42
536.721	-0.75
537.149	-0.29
537.576	0.82
538.004	0.57
538.432	0.08
538.86	0.54
539.287	0.15
539.715	0.68
540.143	-0.7
540.57	-0.16
540.998	0.17
541.425	1.98
541.852	1.61
542.28	1.02
542.707	0.83
543.134	1.36
543.561	1.26
543.988	1.81
544.415	1.29
544.842	1.19
545.269	1.06
545.696	1.66
546.123	0.85
546.549	1.32
546.976	1.58
547.403	1.7
547.829	1.36
548.256	0.74
548.682	0.38
549.108	1.49
549.535	2.07
549.961	1.46
550.387	0.76
550.813	1.89
551.24	1.91
551.666	1.21
552.092	0.68
552.518	0.46
552.943	1.31
553.369	1.4
553.795	1.33
554.221	0.76
554.646	1.2
555.072	2.72
555.498	1.05
555.923	0.39
556.349	0.32
556.774	0.5
557.199	0.45
557.625	-0.36
558.05	-0.21
558.475	-0.82
558.9	-0.49
559.325	-0.09
559.75	-0.64
560.175	-0.66
560.6	-0.55
561.025	-0.35
561.449	-0.42
561.874	-0.37
562.299	0.4
562.723	-0.08
563.148	-0.37
563.572	-0.76
563.997	-1.14
564.421	-2.16
564.846	-2.69
565.27	-2.37
565.694	-2.78
566.118	-3.21
566.542	-2.29
566.966	-2.31
567.39	-2.39
567.814	-2.19
568.238	-1.83
568.662	-2.14
569.086	-1.91
569.509	-1.82
569.933	-0.36
570.357	-0.11
570.78	0.39
571.204	1.06
571.627	0.77
572.05	1.26
572.474	2.28
572.897	2.79
573.32	3.46
573.743	3.18
574.166	3.9
574.589	1.9
575.012	2.09
575.435	1.6
575.858	0.41
576.281	0.19
576.704	-0.92
577.126	-2.09
577.549	-2.66
577.972	-2.85
578.394	-2.61
578.817	-1.1
579.239	-0.99
579.661	-0.56
580.084	0.75
580.506	1.28
580.928	1.16
581.35	2.48
581.772	2.75
582.194	2.63
582.616	1.74
583.038	0.99
583.46	-0.51
583.882	-0.15
584.303	-1.63
584.725	-2.57
585.147	1.53
585.568	2.16
585.99	2.23
586.411	2.61
586.833	3.03
587.254	3.49
587.675	3.68
588.096	3.19
588.518	3.4
588.939	4.34
589.36	4.58
589.781	-0.26
590.202	2.17
590.623	1.68
591.043	1.19
591.464	1.12
591.885	1.44
592.305	1.39
592.726	1.07
593.147	0.8
593.567	0.85
593.987	0.69
594.408	0.22
594.828	-3.09
595.248	-2.33
595.669	-1.62
596.089	-1.97
596.509	-2.65
596.929	-2.57
597.349	-1.49
597.769	-1.67
598.189	-1.46
598.608	-1.55
599.028	-1.13
599.448	-0.56
599.867	-1.41
600.287	-2.44
600.706	-1.54
601.126	-0.71
601.545	0.05
601.965	-0.5
602.384	-0.17
602.803	-0.52
603.222	0.14
603.641	-0.25
604.061	0.38
604.48	0.43
604.898	0.96
605.317	-0.02
605.736	0.02
606.155	0.2
606.574	0.33
606.992	-0.2
607.411	0.01
607.829	-1.18
608.248	-0.72
608.666	-1.78
609.085	-1.54
609.503	-1.64
609.921	-0.57
610.339	-0.85
610.758	-1.78
611.176	-1.85
611.594	-0.41
612.012	-0.2
612.43	1.05
612.847	0.92
613.265	2.4
613.683	2.25
614.101	1.93
614.518	0.95
614.936	0.99
615.353	1.82
615.771	2.21
616.188	1.42
616.606	1.51
617.023	1.39
617.44	1.17
617.857	-0.43
618.274	-0.78
618.691	-0.16
619.108	0.16
619.525	-0.19
619.942	-0.23
620.359	-0.63
620.776	-0.74
621.192	-0.51
621.609	-0.29
622.026	-0.21
622.442	0.54
622.859	0.7
623.275	0.14
623.691	-0.02
624.108	0.48
624.524	0.28
624.94	0.29
625.356	0.15
625.772	-0.72
626.188	-1.71
626.604	-1.77
627.02	-2.58
627.436	-2.08
627.852	-0.82
628.268	-0.49
628.683	-0.74
629.099	-0.6
629.514	-0.94
629.93	-0.69
630.345	-0.59
630.761	-0.5
631.176	-0.33
631.591	1.62
632.007	1.9
632.422	0.31
632.837	-0.33
633.252	0.5
633.667	0.37
634.082	0.69
634.497	0.74
634.911	2.92
635.326	3.21
635.741	3.39
636.155	2.15
636.57	2.34
636.984	3.17
637.399	4.05
637.813	2.82
638.228	2.3
638.642	1.86
639.056	2.03
639.47	0.53
639.884	0.36
640.298	0.15
640.712	0.99
641.126	0.37
641.54	-0.47
641.954	-2.43
642.368	-1.28
642.781	2.1
643.195	2.95
643.609	3.44
644.022	3.17
644.436	2.78
644.849	2.7
645.262	1.96
645.676	0.94
646.089	1.47
646.502	3.99
646.915	2.66
647.328	0.81
647.741	0.75
648.154	0.27
648.567	2.31
648.98	3
649.393	2.55
649.805	1.73
650.218	2.7
650.631	3.3
651.043	2.7
651.456	3.64
651.868	2.72
652.28	1.18
652.693	0.4
653.105	-1.21
653.517	-1.84
653.929	-1.42
654.341	-0.37
654.753	0.43
655.165	-0.47
655.577	-0.89
655.989	-1.27
656.401	-2.68
656.813	-0.13
657.224	-0.3
657.636	-1.56
658.047	0.2
658.459	0.02
658.87	-1.23
659.282	-2.18
659.693	-1.13
660.104	-0.68
660.515	-0.59
660.926	-0.46
661.338	-1.01
661.749	-0.96
662.159	0.7
662.57	-1.34
662.981	-1.93
663.392	-1.41
663.803	-1.5
664.213	-2.12
664.624	-2.74
665.035	-3.54
665.445	-3.11
665.855	-2.3
666.266	-1.23
666.676	-2.24
667.086	-2.48
667.497	-1.26
667.907	-0.74
668.317	-0.87
668.727	2.6
669.137	1.52
669.547	1.16
669.956	0.24
670.366	-1.39
670.776	-1.29
671.186	-1.32
671.595	-0.72
672.005	-1.89
672.414	-1.06
672.824	-0.3
673.233	-4.08
673.642	-3.31
674.052	-2.07
674.461	0.1
674.87	0.04
675.279	0.56
675.688	-0.67
676.097	0.59
676.506	1.85
676.915	-0.14
677.323	-0.24
677.732	-0.09
678.141	-0.52
678.549	-0.71
678.958	-2.29
679.366	-2.49
679.775	-4.11
680.183	-1.81
680.592	-2.55
681	-2.96
681.408	-2.06
681.816	-2.17
682.224	-2.61
682.632	-0.65
683.04	-0.77
683.448	-1.62
683.856	-0.09
684.264	1.24
684.671	-0.24
685.079	-0.64
685.487	-1.41
685.894	-1.86
686.302	-4.75
686.709	-3.98
687.116	-5.25
687.524	-3.35
687.931	-1.54
688.338	-2.88
688.745	-4.57
689.152	-4.07
689.559	-3.11
689.966	-1.4
690.373	-0.26
690.78	2.54
691.187	1.84
691.593	2.85
692	0.5
692.407	1.63
692.813	4.55
693.22	5.99
693.626	5.04
694.032	4.47
694.439	4.56
694.845	3.97
695.251	2.06
695.657	3.5
696.063	2.33
696.469	2.45
696.875	2.37
697.281	-0.15
697.687	-1.6
698.093	-1.41
698.498	-0.93
698.904	-2.36
699.31	-2.77
699.715	1.02
700.12	-0.25
700.526	-0.48
700.931	-0.9
701.337	-0.81
701.742	0.55
702.147	0.76
702.552	0.88
702.957	0.07
703.362	-0.1
703.767	-0.5
704.172	-3.14
704.577	-3.01
704.981	-3.8
705.386	-2.6
705.791	-3.51
706.195	-5.56
706.6	-4.78
707.004	-6.07
707.408	-6.01
707.813	-4.25
708.217	-3.34
708.621	-3.34
709.025	-3.84
709.43	-1.5
709.834	-1.07
710.237	-1.37
710.641	-0.23
711.045	-0.23
711.449	2.14
711.853	5.26
712.256	3.51
712.66	3.37
713.064	3.36
713.467	5.05
713.87	3.92
714.274	3.58
714.677	3.82
715.08	4.03
715.484	4.42
715.887	6.72
716.29	2.99
716.693	5.59
717.096	6.67
717.499	7.62
717.901	6.32
718.304	6.37
718.707	5.46
719.109	6.82
719.512	5.1
719.915	6.19
720.317	3.18
720.719	1.85
721.122	-0.01
721.524	0.19
721.926	4.62
722.328	3.6
722.731	2.89
723.133	3.6
723.535	1.51
723.937	2.96
724.338	4.35
724.74	6.16
725.142	56.01
725.544	60.65
725.945	71.76
726.347	67.29
726.748	69.05
727.15	71.04
727.551	73.74
727.952	73.49
728.354	71.49
728.755	69.79
729.156	67.05
729.557	20.34
729.958	15.36
730.359	3.32
730.76	4.09
731.161	4.14
731.562	2
731.962	-0.58
732.363	0.05
732.763	0.35
733.164	-1.95
733.564	-0.8
733.965	0.03
734.365	0.76
734.766	0.87
735.166	-0.42
735.566	-0.16
735.966	1.76
736.366	2.55
736.766	2.71
737.166	2.77
737.566	4.27
737.966	4.48
738.365	4.45
738.765	5.88
739.165	6.38
739.564	6.4
739.964	4.88
740.363	3.19
740.763	0.99
741.162	2.17
741.561	2.24
741.96	1.92
742.36	0.63
742.759	0.21
743.158	-2.35
743.557	-2.76
743.955	-2.68
744.354	-2.21
744.753	-2.11
745.152	0.01
745.55	-2.13
745.949	-2.38
746.348	-1.73
746.746	-2.65
747.144	-0.84
747.543	-0.61
747.941	-1.14
748.339	-1.48
748.737	-0.8
749.136	-0.86
749.534	-3.01
749.932	0.23
750.33	0.3
750.727	-1.28
751.125	0.35
751.523	-1.15
751.921	2.09
752.318	2.24
752.716	4.61
753.113	3.53
753.511	3.78
753.908	5.72
754.305	8.45
754.703	8.92
755.1	10.18
755.497	10.15
755.894	9.32
756.291	6.56
756.688	6.96
757.085	4.61
757.482	6.79
757.878	9.51
758.275	8.96
758.672	0.73
759.068	-0.46
759.465	-3.7
759.861	-4.45
760.258	-5.48
760.654	-5.91
761.05	-3.43
761.447	-4.24
761.843	-6.65
762.239	-8.74
762.635	-10.47
763.031	-10.77
763.427	-10.61
763.822	-7.53
764.218	-9.13
764.614	-7.94
765.01	-9.59
765.405	-10.45
765.801	-8.31
766.196	-7.12
766.592	-7.42
766.987	-5.35
767.382	-5.42
767.778	-3.61
768.173	-4.77
768.568	-3.03
768.963	-1
769.358	0.35
769.753	1.6
770.148	2.99
770.542	3.28
770.937	2.58
771.332	2.2
771.726	2.69
772.121	4.36
772.515	5.73
772.91	4.58
773.304	3.41
773.699	3.23
774.093	3.01
774.487	1.61
774.881	0.17
775.275	1.26
775.669	0.66
776.063	0.8
776.457	-0.33
776.851	-0.35
777.245	-0.16
777.638	-0.35
778.032	-0.34
778.425	0.12
778.819	4.1
779.212	6.54
779.606	9.08
779.999	9
780.392	10.54
780.786	8.76
781.179	8.36
781.572	9.69
781.965	9.49
782.358	9.37
782.751	7.32
783.143	2.58
783.536	1.96
783.929	-1.63
784.322	-1.36
784.714	-3.42
785.107	-2.35
785.499	-0.28
785.891	1.1
786.284	1.56
786.676	0.59
787.068	4.72
787.46	6.2
787.852	4.72
788.245	3.35
788.636	2.03
789.028	4.13
789.42	5.39
789.812	4.13
790.204	1.94
790.595	4.52
790.987	6.85
791.378	6.95
791.77	4.56
792.161	2.75
792.553	5.43
792.944	6.21
793.335	4.06
793.726	3.81
794.117	5.74
794.508	2.97
794.899	-2.08
795.29	-4.18
795.681	-6.93
796.072	-5.35
796.463	15.75
796.853	19.97
797.244	21.56
797.634	22.39
798.025	21.37
798.415	16.24
798.806	19.11
799.196	22.59
799.586	25.2
799.976	27.2
800.366	25.66
800.756	2.84
801.146	0.57
801.536	-0.87
801.926	-0.98
802.316	1.66
802.706	4.39
803.095	4.25
803.485	4.36
803.874	1.8
804.264	-1.05
804.653	0.39
805.043	6.24
805.432	7.2
805.821	9.56
806.21	10.77
806.599	8.41
806.988	9.81
807.377	6.92
807.766	4.96
808.155	6.16
808.544	7.24
808.933	7.27
809.321	6.81
809.71	0.83
810.098	-1.78
810.487	-5
810.875	-6.87
811.264	-9.68
811.652	2.6
812.04	3.53
812.428	4.63
812.816	-1.04
813.204	-0.58
813.592	-7.46
813.98	-6.47
814.368	-0.11
814.756	-2.26
815.144	-1.18
815.531	5.58
815.919	-3.11
816.306	-4.99
816.694	-3.21
817.081	5.67
817.469	7.5
817.856	5.64
818.243	5.04
818.63	-0.24
819.017	7.69
819.404	10.25
819.791	3.93
820.178	-0.3
820.565	2.43
820.952	11.18
821.339	9.58
821.725	11.17
822.112	19.7
822.498	21.59
822.885	21.81
823.271	18.05
823.657	13.39
824.044	13.83
824.43	13.74
824.816	21.55
825.202	16.72
825.588	15.06
825.974	14.11
826.36	11.48
826.746	11.24
827.132	9.02
827.517	13.45
827.903	15.68
828.289	19.1
828.674	21.28
829.06	16.44
829.445	11.81
829.83	8.44
830.216	6.15
830.601	8.61
830.986	16.48
831.371	18.87
831.756	19.6
832.141	24.48
832.526	25.16
832.911	25.28
833.295	23.96
833.68	23.83
834.065	28.57
834.449	28.45
834.834	29.24
835.218	27.6
835.603	28.73
835.987	24.36
836.371	20.16
836.755	19.69
837.139	13.56
837.524	8.86
837.908	5.39
838.291	7.13
838.675	7.07
839.059	3.64
839.443	-0.15
839.827	-3.57
840.21	-9.07
840.594	-8.78
840.977	-6.41
841.361	-1.35
841.744	-2.17
842.127	-0.65
842.511	-4.29
842.894	-8.18
843.277	-5.8
843.66	-9.77
844.043	-8.72
844.426	1.46
844.809	-2.84
845.191	-5.8
845.574	-6.74
845.957	-2.95
846.339	2.06
846.722	1.7
847.104	0.43
847.487	-3.55
847.869	0.31
848.252	0.93
848.634	-0.88
849.016	1.45
849.398	-0.19
849.78	-0.79
850.162	0.32
850.544	-0.47
850.926	-2.06
851.307	1.1
851.689	0.96
852.071	-6.63
852.452	-5.08
852.834	-6.48
853.215	-0.93
853.597	-5.28
853.978	-0.62
854.359	1.97
854.741	2.7
855.122	0.17
855.503	0.35
855.884	1.08
856.265	6.62
856.646	-3.56
857.026	-1.57
857.407	-4.52
857.788	-2.31
858.169	-8.83
858.549	-4.86
858.93	-9.41
859.31	-6.67
859.69	0.23
860.071	1.04
860.451	3.86
860.831	10.56
861.211	3.75
861.591	1.51
861.971	1.47
862.351	1.9
862.731	-8.48
863.111	-5.43
863.491	-0.95
863.87	-7.16
864.25	-9.46
864.629	-6.35
865.009	-7.16
865.388	0.02
865.768	-3.67
866.147	0.16
866.526	1.2
866.905	5.33
867.284	-4.5
867.663	-10.94
868.042	-13.2
868.421	-13.39
868.8	-22.69
869.179	-21.2
869.558	-22.71
869.936	-16.78
870.315	-21.32
870.693	-11.48
871.072	-19.06
871.45	-15.97
871.828	-11.78
872.207	-6.71
872.585	-3.54
872.963	-5.53
873.341	3.69
873.719	9.57
874.097	10.3
874.475	6.3
874.853	-4.02
875.23	2.34
875.608	3.7
875.986	3.35
876.363	1.8
876.741	11.07
877.118	25.83
877.495	23.52
877.873	16.92
878.25	15.39
878.627	21.79
879.004	23.22
879.381	17.22
879.758	28.59
880.135	29.68
880.512	28.06
880.889	13.67
881.265	6.33
881.642	-1.23
882.019	-3.43
882.395	4.55
882.772	13.04
883.148	19.28
883.524	21.3
883.901	14.88
884.277	7.51
884.653	6.94
885.029	15.38
885.405	26.02
885.781	28.63
886.157	28.56
886.532	20.27
886.908	11.72
887.284	5.55
887.659	6.6
888.035	3.91
888.411	7.49
888.786	5.73
889.161	3.6
889.537	-11.86
889.912	-17.5
890.287	-11.46
890.662	-12.82
891.037	-15.13
891.412	-15.5
891.787	-21.1
892.162	-14.05
892.536	-18.62
892.911	-12.49
893.286	-17.92
893.66	-12.69
894.035	-7.66
894.409	-17.27
894.784	-11.55
895.158	-11.7
895.532	-11.23
895.906	-2.12
896.281	-2.36
896.655	10.2
897.029	8.17
897.402	15.12
897.776	11.2
898.15	8.38
898.524	10.41
898.898	3.93
899.271	9.91
899.645	8.75
900.018	4.79
900.392	-2.29
900.765	-19.15
901.138	-18.38
901.511	-27.71
901.884	-13.45
902.258	-7.59
902.631	3.53
903.003	2.55
903.376	-2.22
903.749	5.35
904.122	-1.66
904.495	-13.43
904.867	-13.88
905.24	-14.73
905.612	-6.44
905.985	-24.04
906.357	-38.12
906.729	-43.39
907.102	-23.87
907.474	-16.31
907.846	-14.95
908.218	-11.21
908.59	9.18
908.962	13.25
909.334	21.68
909.705	24.03
910.077	26.22
910.449	31.96
910.82	35.38
911.192	29.08
911.563	29.51
911.935	16.12
912.306	6.47
912.677	-9.23
913.048	-4.11
913.419	-16.45
913.79	-26.23
914.161	-30.3
914.532	-20
914.903	-23.48
915.274	-22.18
915.645	-20.3
916.015	-19.85
916.386	-16.88
916.756	-19.5
917.127	-29.04
917.497	-17.33
917.868	-14.32
918.238	-14.75
918.608	-31.24
918.978	-27.22
919.348	-42.56
919.718	-52.38
920.088	-32.19
920.458	-17.98
920.828	-25.17
921.198	-17.43
921.567	-25.05
921.937	-16.21
922.306	-19.4
922.676	-16.34
923.045	-8.45
923.415	7.82
923.784	10.96
924.153	9.54
924.522	15.54
924.891	17.86
925.26	14.57
925.629	3.71
925.998	-4.61
926.367	6.46
926.736	27.94
927.104	21.23
927.473	10.92
927.842	2.2
928.21	-20.68
928.578	-48.2
928.947	-43.51
929.315	-40.65
929.683	-7.18
930.051	7.22
930.42	-1.96
930.788	-15.84
931.156	3.82
931.523	39.86
931.891	54.71
932.259	77.61
932.627	116.49
932.994	155.74
933.362	173.06
933.729	123.84
934.097	119.65
934.464	100.19
934.831	93.33
935.199	71.99
935.566	40.42
935.933	75.07
936.3	67.73
936.667	38.71
937.034	121.11
937.401	89.02
937.767	90.51
938.134	71.04
938.501	70.92
938.867	108.77
939.234	154.17
939.6	92.03
939.967	-0.9
940.333	13.52
940.699	-18.05
941.065	-111.59
941.431	-148.17
941.798	-95.66
942.163	-78.89
942.529	-22.1
942.895	-42.5
943.261	-14.24
943.627	-6.06
943.992	11.92
944.358	14.06
944.723	48.48
945.089	44.22
945.454	62.52
945.82	29.74
946.185	-0.3
946.55	-0.93
946.915	-7.21
947.28	-24
947.645	-23.3
948.01	2.5
948.375	17.8
948.74	-1.01
949.104	-18.22
949.469	-124.3
949.834	-218.74
950.198	-62.66
950.562	9.82
950.927	36.4
951.291	38.24
951.655	45.75
952.02	-46.91
952.384	-39.65
952.748	-10.15
953.112	51.15
953.476	65.29
953.839	57.56
954.203	64.91
954.567	54.03
954.931	37.4
955.294	70.4
955.658	54.38
956.021	135.05
956.385	145.57
956.748	127.31
957.111	-336.35
957.474	-479.65
957.837	-537.12
958.2	-611.38
958.563	-161.34
958.926	-54.95
959.289	-133.7
959.652	-54.52
960.015	-42.57
960.377	-55.2
960.74	-43.73
961.102	-51.06
961.465	128.7
961.827	452.89
962.189	814.56
962.552	571.31
962.914	382.82
963.276	232.83
963.638	188.3
964	149.26
964.362	124.3
964.724	101.54
965.085	80.52
965.447	62.81
965.809	-14.61
966.17	-37.29
966.532	-66.56
966.893	-44.52
967.255	-38.25
967.616	-83.29
967.977	-44.65
968.338	-66.89
968.699	-38.34
969.061	-38.95
969.421	-45.1
969.782	-51.03
970.143	-17.01
970.504	15.97
970.865	26.77
971.225	46.41
971.586	60.98
971.946	59.64
972.307	68.44
972.667	42.5
973.027	44.22
973.388	28.91
973.748	28.58
974.108	49.44
974.468	-18.84
974.828	33.66
975.188	22.92
975.548	11.96
975.907	25.66
976.267	10.37
976.627	48.21
976.986	46.1
977.346	49.06
977.705	39.59
978.064	25.51
978.424	28.81
978.783	-5.91
979.142	-11.64
979.501	1.1
979.86	6.32
980.219	-0.5
980.578	-33.46
980.937	-47.48
981.296	-30.36
981.654	-38.72
982.013	-100.07
982.371	-122.53
982.73	-125.21
983.088	-152.53
983.447	-169.99
983.805	-225.37
984.163	-440.73
984.521	-563.55
984.879	-847.29
985.237	1433.08
985.595	-938.85
985.953	-293.63
986.311	-203.56
986.669	-90.12
987.026	-117.93
987.384	-186.78
987.741	-274.72
988.099	-99.65
988.456	-60.92
988.814	-36.92
989.171	-39.28
989.528	-59.41
989.885	-72.39
990.242	-24.49
990.599	-55.2
990.956	-30.09
991.313	-17.14
991.67	2.52
992.027	23.48
992.383	20.6
992.74	25.22
993.096	36.99
993.453	43.81
993.809	50.22
994.165	49.59
994.522	93.57
994.878	95.91
995.234	109.62
995.59	98.4
995.946	27.07
996.302	30.43
996.658	12.66
997.013	-6.88
997.369	22.11
997.725	35.56
998.08	-3.64
998.436	-186.95
998.791	-249.59
999.147	-233.46
999.502	-247.46
999.857	-212.59
1000.212	-391.24
1000.567	-539.52
1000.922	-288.28
1001.277	-215.48
1001.632	-155.31
1001.987	-200.37
1002.342	-106.39
1002.696	-67.63
1003.051	-12.9
1003.406	-6.22
1003.76	-12.1
1004.114	6.23
1004.469	12.92
1004.823	14.89
1005.177	-5.45
1005.531	-0.54
1005.885	12.72
1006.239	23.36
1006.593	41.67
1006.947	50.56
1007.301	12.66
1007.655	13.59
1008.008	15
1008.362	23.65
1008.715	39.24
1009.069	32.81
1009.422	155.92
1009.776	254.57
1010.129	139.88
1010.482	71.77
1010.835	-37.3
1011.188	-80.65
1011.541	-137.33
1011.894	1384.66
1012.247	-5552.64
1012.6	-472.77
1012.952	-229.48
1013.305	-217.91
1013.657	-107.12
1014.01	-115.95
1014.362	-108.86
1014.715	-19.38
1015.067	19.33
1015.419	26.07
1015.771	44.23
1016.123	68.58
1016.475	77.95
1016.827	72.51
1017.179	108.7
1017.531	84.67
1017.883	76.31
1018.234	128.65
1018.586	122
1018.938	132.93
1019.289	196.14
1019.64	158.64
1019.992	81.03
1020.343	33.62
1020.694	90.68
1021.045	53.4
1021.396	42.37
1021.747	73.75
1022.098	1.89
1022.449	9.73
1022.8	4.18
1023.151	28.74
1023.501	55.65
1023.852	61.71
1024.202	94.25
1024.553	55.39
1024.903	101.02
1025.253	114.36
1025.604	113.09
1025.954	129.37
1026.304	118.67
1026.654	103.85
1027.004	74.07
1027.354	9.4
1027.703	63.65
1028.053	-80.82
1028.403	170.05
1028.753	-377.59
1029.102	-1154.56
1029.452	-9023.57
1029.801	-447.51
1030.15	-293.93
1030.499	-281.11
897.758	1770.9
901.051	1706.27
904.343	1736.84
907.636	1741.86
910.928	1793.19
914.22	1729.15
917.511	1733.77
920.803	1767.45
924.094	1761.1
927.384	1769.22
930.675	1738.53
933.965	1711.98
937.255	1743.29
940.544	1720.13
943.834	1709.56
947.123	1662.03
950.411	1733.4
953.7	1717.59
956.988	1710.07
960.276	1649.25
963.563	1680.11
966.851	1690.8
970.138	1720.85
973.424	1721.12
976.711	1678.93
979.997	1723.18
983.283	1755.3
986.568	1702.43
989.853	1687.54
993.138	1707.06
996.423	1781.77
999.708	1752.75
1002.992	1773.15
1006.275	1699.04
1009.559	1699.76
1012.842	1776.95
1016.125	1741.08
1019.408	1722.19
1022.69	1762.61
1025.972	1790.41
1029.254	1772.49
1032.536	1746.4
1035.817	1746.94
1039.098	1723.35
1042.379	1761.53
1045.659	1783.35
1048.939	1740.68
1052.219	1739.04
1055.498	1731.71
1058.778	1725.29
1062.057	1704.48
1065.335	1723.69
1068.614	1729.94
1071.892	1728.8
1075.17	1767.87
1078.447	1771.91
1081.724	1767.12
1085.001	1784.11
1088.278	1767.07
1091.554	1765.98
1094.83	1763.81
1098.106	1791.36
1101.382	1811.69
1104.657	1809.86
1107.932	1808.38
1111.206	1792.3
1114.481	1749.52
1117.755	1751.93
1121.029	1749.78
1124.302	1797.4
1127.575	1775.94
1130.848	1775.2
1134.121	1753.78
1137.393	1723.06
1140.665	1766.63
1143.937	1751.96
1147.208	1706.42
1150.48	1758
1153.75	1745.18
1157.021	1742.04
1160.291	1724.5
1163.561	1765.99
1166.831	1733.76
1170.101	1753.23
1173.37	1716.87
1176.639	1687.32
1179.907	1720.01
1183.176	1738.8
1186.444	1741.79
1189.711	1760.47
1192.979	1780.62
1196.246	1745.66
1199.513	1756.55
1202.78	1761.45
1206.046	1767.79
1209.312	1794.15
1212.578	1803.05
1215.843	1778.85
1219.108	1755.14
1222.373	1773.2
1225.638	1754.15
1228.902	1749.2
1232.166	1716.06
1235.43	1708.48
1238.693	1733.85
1241.956	1726.59
1245.219	1769.51
1248.482	1754.62
1251.744	1754.46
1255.006	1848.62
1258.268	1803.17
1261.529	1773.03
1264.79	1770.28
1268.051	1843.85
1271.312	1850.39
1274.572	1824.85
1277.832	1814.63
1281.092	1793.81
1284.351	1790.14
1287.61	1777.86
1290.869	1729.24
1294.128	1730.41
1297.386	1757.01
1300.644	1751
1303.902	1761.77
1307.159	1656.47
1310.416	1695.38
1313.673	1717.85
1316.93	1722.49
1320.186	1743.56
1323.442	1767.82
1326.697	1771.05
1329.953	1747.33
1333.208	1780.49
1336.463	1762.77
1339.717	1736.84
1342.972	1821.2
1346.226	1799.27
1349.479	1765.93
1352.733	1749.97
1355.986	1755.91
1359.238	1742.68
1362.491	1747.73
1365.743	1750.16
1368.995	1745.04
1372.247	1757.79
1375.498	1772.32
1378.749	1812.48
1382	1774.95
1385.251	1799.13
1388.501	1762.52
1391.751	1766.63
1395	1742.45
1398.25	1762.41
1401.499	1788.59
1404.748	1753.73
1407.996	1734.9
1411.244	1729.13
1414.492	1717.91
1417.74	1710.66
1420.987	1714.87
1424.234	1764.8
1427.481	1729.48
1430.728	1775.09
1433.974	1758.28
1437.22	1752.7
1440.465	1745.76
1443.711	1754.33
1446.956	1769.83
1450.201	1741.36
1453.445	1774.37
1456.689	1764.5
1459.933	1772.55
1463.177	1807.46
1466.42	1787.27
1469.663	1769.68
1472.906	1784.56
1476.148	1821.72
1479.391	1784.9
1482.633	1767.32
1485.874	1793.09
1489.115	1798.4
1492.356	1782.54
1495.597	1764.08
1498.838	1751.26
1502.078	1741.31
1505.318	1724.78
1508.557	1747.13
1511.797	1745.51
1515.036	1787.9
1518.274	1756.78
1521.513	1708.71
1524.751	1716.04
1527.989	1734.35
1531.227	1749.21
1534.464	1762.24
1537.701	1750.02
1540.938	1755.93
1544.174	1712.78
1547.41	1699.7
1550.646	1728.89
1553.882	1767.15
1557.117	1814.43
1560.352	1816.83
1563.587	1786.75
1566.821	1761.76
1570.055	1770.18
1573.289	1754.84
1576.523	1794.7
1579.756	1808.91
1582.989	1825.6
1586.222	1790.05
1589.454	1815.44
1592.686	1802.97
1595.918	1824.57
1599.15	1821.84
1602.381	1852.29
1605.612	1843.78
1608.843	1914.84
1612.073	1855.3
1615.303	1845.59
1618.533	1845.01
1621.762	1845.95
1624.992	1818.61
1628.221	1821.55
1631.449	1812.32
1634.678	1828.7
1637.906	1802.95
1641.134	1820.05
1644.361	1793.45
1647.588	1789
1650.815	1807.74
1654.042	1775.59
1657.269	1795.38
1660.495	1785.55
1663.72	1768.55
1666.946	1744.25
1670.171	1733.03
1673.396	1709.62
1676.621	1695.19
1679.845	1689.1
1683.069	1688.04
1686.293	1708.72
1689.517	1706.64
1692.74	1673.81
1695.963	1689.41
1699.185	1724.81
1702.408	1708.6
1705.63	1725.87
1708.852	1743.57
1712.073	1719.66
1715.294	1737.05
1718.515	1770.31
1721.736	1739.28
1724.956	1721.5
1728.176	1740.02
1731.396	1756.69
1734.616	1748.26
1737.835	1778.76
1741.054	1753.73
1744.272	1748.21
1747.491	1784.21
1750.709	1796.89
1753.927	1767.76
1757.144	1786.44
1760.361	1833.93
1763.578	1807.31
1766.795	1770.15
1770.011	1758.62
1773.227	1774.23
1776.443	1810.35
1779.658	1845.32
1782.874	1796.84
1786.089	1794.05
1789.303	1795.21
1792.518	1789.83
1795.732	1782.35
1798.945	1799.34
1802.159	1832.59
1805.372	1793.37
1808.585	1791.31
1811.797	1791.55
1815.01	1807.67
1818.222	1834.39
1821.434	1795.65
1824.645	1827.53
1827.856	1842.56
1831.067	1863.69
1834.278	1811.03
1837.488	1799.3
1840.698	1891.74
1843.908	1851.78
1847.117	1830.83
1850.326	1777.06
1853.535	1818.77
1856.744	1855.97
1859.952	1795.05
1863.16	1796.52
1866.368	1814.64
1869.575	1910.31
1872.782	1815.52
1875.989	1768.63
1879.196	1803.03
1882.402	1798.39
1885.608	1826.86
1888.814	1787.73
1892.019	1718.1
1895.224	1765.02
1898.429	1735.08
1901.634	1722.32
1904.838	1704.8
1908.042	1757.19
1911.246	1767.47
1914.449	1744.56
1917.652	1726.68
1920.855	1711.59
1924.058	1728.32
1927.26	1768.97
1930.462	1784.07
1933.664	1821.16
1936.865	1775.9
1940.066	1789.38
1943.267	1741.54
1946.467	1752.58
1949.668	1764.2
1952.868	1824.22
1956.067	1818.61
1959.267	1770.24
1962.466	1789.01
1965.665	1773.07
1968.863	1770.32
1972.061	1770.27
1975.259	1763.21
1978.457	1825.91
1981.654	1790.2
1984.852	1792.89
1988.048	1758.9
1991.245	1745.01
1994.441	1820.84
1997.637	1775.45
2000.833	1761.18
2004.028	1788.49
2007.223	1839.44
2010.418	1831.34
2013.613	1787.55
2016.807	1788.22
2020.001	1780.65
2023.194	1795.57
2026.388	1783.35
2029.581	1735.69
2032.774	1793.35
2035.966	1801.19
2039.158	1758.82
2042.35	1772.59
2045.542	1713.71
2048.733	1777.28
2051.924	1762.96
2055.115	1774.18
2058.306	1749.85
2061.496	1791.55
2064.686	1829.68
2067.875	1750.46
2071.065	1749.66
2074.254	1762.31
2077.442	1727.68
2080.631	1792.3
2083.819	1745.9
2087.007	1741.19
2090.195	1731.17
2093.382	1736.78
2096.569	1729.02
2099.756	1699.87
2102.942	1746.68
2106.128	1759.05
2109.314	1750.93
2112.5	1743.01
2115.685	1714.04
2118.87	1720.09
2122.055	1771.3
2125.239	1755.59
2128.424	1750.09
2131.608	1787.47
2134.791	1771.9
2137.974	1798.73
2141.157	1792.9
2144.34	1772.78
2147.523	1756.19
2150.705	1784.2
2153.887	1753.73
2157.068	1736.87
2160.25	1713.78
2163.431	1731.95
2166.611	1711.79
2169.792	1734.39
2172.972	1662.4
2176.152	1700.16
2179.331	1719.44
2182.511	1729.46
2185.69	1742.82
2188.868	1750.03
2192.047	1774
2195.225	1799.74
2198.403	1752.41
2201.58	1740.68
2204.758	1722.79
2207.935	1783.85
2211.111	1719.28
2214.288	1711.28
2217.464	1737.72
2220.64	1698
2223.815	1737.24
2226.991	1682.44
2230.166	1693.04
2233.34	1733.56
2236.515	1742.12
2239.689	1796.9
2242.863	1755.83
2246.036	1800.03
2249.209	1782.8
2252.382	1795.5
2255.555	1808.51
2258.727	1771.19
2261.9	1793.18
2265.071	1788.19
2268.243	1786.92
2271.414	1748.25
2274.585	1738.53
2277.756	1789.31
2280.926	1756.08
2284.096	1774.68
2287.266	1722.24
2290.436	1761.97
2293.605	1774.8
2296.774	1810.24
2299.942	1809.43
2303.111	1821.34
2306.279	1865.22
2309.447	1853.36
2312.614	1829.45
2315.781	1846.81
2318.948	1832.32
2322.115	1862.83
2325.281	1775.73
2328.447	1779.7
2331.613	1753.55
2334.779	1752.77
2337.944	1746.95
2341.109	1750.9
2344.274	1742.2
2347.438	1717.32
2350.602	1735.72
2353.766	1740.4
2356.929	1734.15
2360.092	1764.11
2363.255	1743.7
2366.418	1724.23
2369.58	1759.64
2372.742	1708.45
2375.904	1689.24
2379.066	1682.58
2382.227	1697.19
2385.388	1664.89
2388.548	1631.34
2391.709	1659.39
2394.869	1658.34
2398.029	1691.3
2401.188	1679.38
2404.347	1663.92
2407.506	1683.96
2410.665	1731.12
2413.823	1711.4
2416.981	1701.45
2420.139	1710.24
2423.296	1743.42
2426.453	1721.34
2429.61	1736.22
2432.767	1723.77
2435.923	1759.28
2439.079	1708.21
2442.235	1734.5
2445.391	1685.59
2448.546	1724.67
2451.701	1748.87
2454.855	1751.97
2458.009	1768.7
2461.163	1756.16
2464.317	1735.6
2467.471	1755.5
2470.624	1778.04
2473.777	1777.68
2476.929	1790.44
2480.082	1809.73
2483.234	1792.64
2486.385	1742.8
2489.537	1737.12
2492.688	1735.88
2495.839	1750.94
2498.989	1762.1
2502.14	1751.07
2505.29	1747.68
2508.439	1763.73
2511.589	1719.93
2514.738	1715.75
2517.887	1731.66
2521.035	1796.3
2524.183	1758.18
2527.331	1750.61
2530.479	1749.53
2533.627	1751.03
